#U   STOTexp(barn)  SEM(1/cm) PSCAT   STOTexp(barn)  SEM(1/cm) PSCAT  Muestra xh=1.0-Aluminio
   -3.000000   251.966750     8.398311     0.987140     1.368172     0.082416     0.998820
   -2.964824   244.854430     8.161251     0.987292     1.316064     0.079277     0.998822
   -2.929648   238.047290     7.934362     0.987447     1.266021     0.076263     0.998824
   -2.894472   231.617880     7.720063     0.987611     1.218176     0.073381     0.998826
   -2.859297   225.457040     7.514716     0.987778     1.172449     0.070626     0.998829
   -2.824121   219.688200     7.322434     0.987954     1.128378     0.067971     0.998831
   -2.788945   214.166780     7.138400     0.988134     1.086399     0.065443     0.998834
   -2.753769   208.988830     6.965813     0.988323     1.046083     0.063014     0.998838
   -2.718593   204.035680     6.800720     0.988514     1.007652     0.060699     0.998841
   -2.683417   199.362830     6.644969     0.988711     0.970682     0.058472     0.998845
   -2.648241   194.906600     6.496438     0.988912     0.935288     0.056340     0.998849
   -2.613065   190.700070     6.356230     0.989117     0.901624     0.054312     0.998853
   -2.577889   186.717080     6.223473     0.989326     0.869299     0.052365     0.998858
   -2.542714   182.914810     6.096739     0.989536     0.838494     0.050509     0.998863
   -2.507538   179.323720     5.977044     0.989750     0.809204     0.048745     0.998868
   -2.472362   175.883780     5.862388     0.989965     0.781150     0.047055     0.998874
   -2.437186   172.610730     5.753294     0.990180     1.447174     0.087175     0.999416
   -2.402010   169.448000     5.647876     0.990394     2.011125     0.121146     0.999597
   -2.366834   166.476950     5.548848     0.990611     1.887693     0.113711     0.999587
   -2.331658   163.585520     5.452474     0.990824     1.772837     0.106792     0.999578
   -2.296482   160.809150     5.359935     0.991036     2.302903     0.138722     0.999688
   -2.261306   158.106760     5.269861     0.991245     2.155146     0.129822     0.999680
   -2.226131   155.495970     5.182841     0.991451     2.017566     0.121534     0.999672
   -2.190955   152.936690     5.097538     0.991653     1.891345     0.113931     0.999664
   -2.155779   150.439840     5.014315     0.991851     1.774093     0.106868     0.999656
   -2.120603   147.977380     4.932239     0.992044     1.665839     0.100347     0.999648
   -2.085427   145.540590     4.851018     0.992232     1.566176     0.094343     0.999640
   -2.050251   143.121590     4.770390     0.992414     1.473654     0.088770     0.999633
   -2.015075   140.707170     4.689915     0.992590     1.552189     0.093501     0.999665
   -1.979899   138.285680     4.609204     0.992760     1.703153     0.102595     0.999707
   -1.944724   135.852700     4.528111     0.992923     1.601195     0.096453     0.999701
   -1.909548   133.385220     4.445867     0.993078     1.507800     0.090827     0.999695
   -1.874372   130.890190     4.362705     0.993226     1.433288     0.086338     0.999692
   -1.839196   128.348510     4.277988     0.993366     1.849927     0.111436     0.999771
   -1.804020   125.769190     4.192017     0.993499     1.814060     0.109275     0.999775
   -1.768844   123.113750     4.103508     0.993622     1.707993     0.102886     0.999771
   -1.733668   120.402630     4.013144     0.993737     1.611546     0.097076     0.999767
   -1.698492   117.618990     3.920362     0.993843     1.582841     0.095347     0.999772
   -1.663317   114.765730     3.825260     0.993941     1.500336     0.090377     0.999769
   -1.628141   111.831090     3.727445     0.994029     1.573804     0.094803     0.999789
   -1.592965   108.817240     3.626991     0.994107     1.667147     0.100426     0.999808
   -1.557789   105.729030     3.524058     0.994175     1.586379     0.095560     0.999807
   -1.522613   102.536800     3.417657     0.994232     1.524895     0.091857     0.999807
   -1.487437    99.279334     3.309083     0.994280     1.551719     0.093473     0.999818
   -1.452261    95.926147     3.197317     0.994315     1.585314     0.095496     0.999829
   -1.417085    92.512618     3.083541     0.994339     1.534555     0.092439     0.999830
   -1.381909    89.035868     2.967657     0.994351     1.499802     0.090345     0.999833
   -1.346734    85.684077     2.855939     0.994363     1.552023     0.093491     0.999845
   -1.311558    83.917003     2.797040     0.994473     1.562669     0.094132     0.999852
   -1.276382    82.891689     2.762865     0.994627     1.530267     0.092180     0.999855
   -1.241206    82.301481     2.743193     0.994803     1.538885     0.092699     0.999861
   -1.206030    81.482662     2.715901     0.994959     1.497731     0.090220     0.999863
   -1.170854    80.128085     2.670752     0.995077     1.516177     0.091332     0.999870
   -1.135678    78.384022     2.612620     0.995167     1.525348     0.091884     0.999876
   -1.100502    76.341158     2.544529     0.995235     1.510641     0.090998     0.999880
   -1.065327    74.292896     2.476259     0.995298     1.501254     0.090433     0.999884
   -1.030151    72.392448     2.412915     0.995366     1.504477     0.090627     0.999889
   -0.994975    70.746854     2.358066     0.995446     1.502049     0.090481     0.999893
   -0.959799    69.303883     2.309970     0.995536     1.501176     0.090428     0.999897
   -0.924623    68.008410     2.266790     0.995632     1.493152     0.089945     0.999901
   -0.889447    66.750405     2.224860     0.995726     1.492688     0.089917     0.999905
   -0.854271    65.488140     2.182787     0.995816     1.489622     0.089732     0.999908
   -0.819095    64.208809     2.140146     0.995902     1.488579     0.089669     0.999912
   -0.783920    62.894815     2.096349     0.995983     1.485044     0.089456     0.999915
   -0.748744    61.649690     2.054848     0.996064     1.483234     0.089347     0.999918
   -0.713568    60.868684     2.028816     0.996172     1.480370     0.089175     0.999922
   -0.678392    59.689089     1.989499     0.996251     1.478017     0.089033     0.999925
   -0.643216    58.363093     1.945302     0.996318     1.476031     0.088913     0.999927
   -0.608040    57.445555     1.914720     0.996408     1.473680     0.088772     0.999930
   -0.572864    56.618926     1.887167     0.996500     1.471574     0.088645     0.999933
   -0.537688    55.820713     1.860562     0.996591     1.469443     0.088516     0.999935
   -0.502513    55.018538     1.833825     0.996679     1.467441     0.088396     0.999938
   -0.467337    54.200956     1.806574     0.996762     1.465463     0.088277     0.999940
   -0.432161    53.372691     1.778967     0.996843     1.463547     0.088161     0.999943
   -0.396985    52.523833     1.750673     0.996919     1.461683     0.088049     0.999945
   -0.361809    51.655279     1.721724     0.996991     1.459885     0.087941     0.999947
   -0.326633    50.510891     1.683580     0.997045     1.458140     0.087836     0.999949
   -0.291457    49.440181     1.647892     0.997101     1.456453     0.087734     0.999951
   -0.256281    49.005622     1.633408     0.997192     1.454818     0.087635     0.999953
   -0.221106    48.647588     1.621474     0.997283     1.453235     0.087540     0.999955
   -0.185930    48.335894     1.611085     0.997374     1.451706     0.087448     0.999956
   -0.150754    48.049670     1.601545     0.997463     1.450224     0.087359     0.999958
   -0.115578    47.783589     1.592676     0.997550     1.448796     0.087273     0.999960
   -0.080402    47.539270     1.584533     0.997636     1.447412     0.087189     0.999961
   -0.045226    47.310859     1.576920     0.997718     1.446076     0.087109     0.999963
   -0.010050    47.105853     1.570087     0.997799     1.446082     0.087109     0.999964
    0.025126    46.912642     1.563647     0.997878     1.445582     0.087079     0.999966
    0.060302    46.735580     1.557745     0.997955     1.444224     0.086997     0.999967
    0.095477    46.569109     1.552196     0.998029     1.442916     0.086918     0.999968
    0.130653    46.419451     1.547208     0.998101     1.441661     0.086843     0.999970
    0.165829    46.279427     1.542541     0.998171     1.440457     0.086770     0.999971
    0.201005    46.150948     1.538259     0.998238     1.439297     0.086700     0.999972
    0.236181    46.031499     1.534277     0.998304     1.438189     0.086634     0.999973
    0.271357    45.921685     1.530617     0.998367     1.437121     0.086569     0.999974
    0.306533    45.820133     1.527232     0.998429     1.436098     0.086508     0.999975
    0.341709    45.725721     1.524085     0.998488     1.435114     0.086449     0.999976
    0.376884    45.640016     1.521229     0.998545     1.434169     0.086392     0.999977
    0.412060    45.559557     1.518547     0.998601     1.433264     0.086337     0.999978
    0.447236    45.486444     1.516110     0.998654     1.432392     0.086285     0.999979
    0.482412    45.417877     1.513825     0.998705     1.431557     0.086234     0.999980
    0.517588    45.355130     1.511733     0.998755     1.430754     0.086186     0.999980
    0.552764    45.295926     1.509760     0.998803     1.429982     0.086139     0.999981
    0.587940    45.243164     1.508001     0.998849     1.429244     0.086095     0.999982
    0.623116    45.193440     1.506344     0.998894     1.428532     0.086052     0.999983
    0.658291    45.147682     1.504819     0.998936     1.427850     0.086011     0.999983
    0.693467    45.105083     1.503399     0.998978     1.427195     0.085971     0.999984
    0.728643    45.066080     1.502099     0.999017     1.426566     0.085934     0.999985
    0.763819    45.029778     1.500889     0.999056     1.425962     0.085897     0.999985
    0.798995    44.996287     1.499773     0.999092     1.425381     0.085862     0.999986
    0.834171    44.965641     1.498751     0.999128     1.424825     0.085829     0.999986
    0.869347    44.937003     1.497797     0.999162     1.424290     0.085796     0.999987
    0.904523    44.910714     1.496920     0.999195     1.423777     0.085766     0.999987
    0.939698    44.886087     1.496100     0.999226     1.423284     0.085736     0.999988
    0.974874    44.863677     1.495353     0.999257     1.422809     0.085707     0.999988
    1.010050    44.849455     1.494879     0.999286     1.422351     0.085680     0.999989
    1.045226    44.831123     1.494268     0.999314     1.421894     0.085652     0.999989
    1.080402    44.812791     1.493657     0.999341     1.421437     0.085625     0.999990
    1.115578    44.796074     1.493099     0.999367     1.420980     0.085597     0.999990
    1.150754    44.781389     1.492610     0.999392     1.420522     0.085570     0.999990
    1.185930    44.766703     1.492120     0.999416     1.420065     0.085542     0.999991
    1.221105    44.753764     1.491689     0.999439     1.419608     0.085514     0.999991
    1.256281    44.741988     1.491297     0.999461     1.419150     0.085487     0.999992
    1.291457    44.730212     1.490904     0.999482     1.418693     0.085459     0.999992
    1.326633    44.720196     1.490570     0.999503     1.418236     0.085432     0.999992
    1.361809    44.710743     1.490255     0.999522     1.417779     0.085404     0.999992
    1.396985    44.701291     1.489940     0.999541     1.417321     0.085377     0.999993
    1.432161    44.693536     1.489682     0.999559     1.416864     0.085349     0.999993
    1.467337    44.685940     1.489428     0.999577     1.416407     0.085322     0.999993
    1.502513    44.678449     1.489179     0.999593     1.415949     0.085294     0.999994
    1.537688    44.672337     1.488975     0.999609     1.415492     0.085267     0.999994
    1.572864    44.666225     1.488771     0.999625     1.415035     0.085239     0.999994
    1.608040    44.660384     1.488577     0.999640     1.414578     0.085211     0.999994
    1.643216    44.655460     1.488413     0.999654     1.414120     0.085184     0.999995
    1.678392    44.650535     1.488248     0.999668     1.413663     0.085156     0.999995
    1.713568    44.645977     1.488096     0.999681     1.413206     0.085129     0.999995
    1.748744    44.642003     1.487964     0.999693     1.412748     0.085101     0.999995
    1.783920    44.638028     1.487831     0.999706     1.412291     0.085074     0.999995
    1.819095    44.634468     1.487713     0.999717     1.411834     0.085046     0.999996
    1.854271    44.631256     1.487606     0.999728     1.411377     0.085019     0.999996
    1.889447    44.628044     1.487499     0.999739     1.410919     0.084991     0.999996
    1.924623    44.625259     1.487406     0.999750     1.410462     0.084964     0.999996
    1.959799    44.622658     1.487319     0.999759     1.410005     0.084936     0.999996
    1.994975    44.620057     1.487232     0.999769     1.409547     0.084908     0.999996
    2.030151    44.617877     1.487160     0.999778     1.409090     0.084881     0.999997
    2.065327    44.615767     1.487090     0.999787     1.408633     0.084853     0.999997
    2.100503    44.613663     1.487019     0.999795     1.408176     0.084826     0.999997
    2.135678    44.611948     1.486962     0.999804     1.407718     0.084798     0.999997
    2.170854    44.610232     1.486905     0.999811     1.407261     0.084771     0.999997
    2.206030    44.608572     1.486850     0.999819     1.406804     0.084743     0.999997
    2.241206    44.607174     1.486803     0.999826     1.406346     0.084716     0.999997
    2.276382    44.605777     1.486757     0.999833     1.405889     0.084688     0.999997
    2.311558    44.604463     1.486713     0.999840     1.405432     0.084660     0.999997
    2.346734    44.603322     1.486675     0.999846     1.404975     0.084633     0.999998
    2.381909    44.602181     1.486637     0.999852     1.404517     0.084605     0.999998
    2.417085    44.601140     1.486602     0.999858     1.404060     0.084578     0.999998
    2.452261    44.600206     1.486571     0.999864     1.403603     0.084550     0.999998
    2.487437    44.599272     1.486540     0.999869     1.403145     0.084523     0.999998
    2.522613    44.598445     1.486512     0.999874     1.402688     0.084495     0.999998
    2.557789    44.597678     1.486487     0.999879     1.402231     0.084468     0.999998
    2.592965    44.596911     1.486461     0.999884     1.401774     0.084440     0.999998
    2.628141    44.596253     1.486439     0.999889     1.401316     0.084413     0.999998
    2.663317    44.595621     1.486418     0.999893     1.400859     0.084385     0.999998
    2.698492    44.594990     1.486397     0.999897     1.400402     0.084357     0.999998
    2.733668    44.594464     1.486379     0.999901     1.399944     0.084330     0.999998
    2.768844    44.593943     1.486362     0.999905     1.399487     0.084302     0.999998
    2.804020    44.593433     1.486345     0.999909     1.399030     0.084275     0.999999
    2.839196    44.593001     1.486331     0.999913     1.398572     0.084247     0.999999
    2.874372    44.592570     1.486316     0.999916     1.398115     0.084220     0.999999
    2.909548    44.592158     1.486303     0.999919     1.397658     0.084192     0.999999
    2.944724    44.591800     1.486291     0.999923     1.397201     0.084165     0.999999
    2.979900    44.591441     1.486279     0.999926     1.396743     0.084137     0.999999
    3.015075    44.591109     1.486268     0.999929     1.396286     0.084110     0.999999
    3.050251    44.590810     1.486258     0.999931     1.395829     0.084082     0.999999
    3.085427    44.590512     1.486248     0.999934     1.395371     0.084054     0.999999
    3.120603    44.590242     1.486239     0.999937     1.394914     0.084027     0.999999
    3.155779    44.589992     1.486230     0.999939     1.394457     0.083999     0.999999
    3.190955    44.589743     1.486222     0.999942     1.394000     0.083972     0.999999
    3.226131    44.589523     1.486215     0.999944     1.393542     0.083944     0.999999
    3.261306    44.589314     1.486208     0.999946     1.393085     0.083917     0.999999
    3.296482    44.589105     1.486201     0.999948     1.392628     0.083889     0.999999
    3.331658    44.588925     1.486195     0.999950     1.392170     0.083862     0.999999
    3.366834    44.588749     1.486189     0.999952     1.391713     0.083834     0.999999
    3.402010    44.588575     1.486183     0.999954     1.391256     0.083807     0.999999
    3.437186    44.588426     1.486178     0.999956     1.390799     0.083779     0.999999
    3.472362    44.588277     1.486173     0.999958     1.390341     0.083751     0.999999
    3.507538    44.588133     1.486168     0.999959     1.389884     0.083724     0.999999
    3.542714    44.588007     1.486164     0.999961     1.389427     0.083696     0.999999
    3.577889    44.587881     1.486160     0.999963     1.388969     0.083669     0.999999
    3.613065    44.587763     1.486156     0.999964     1.388512     0.083641     0.999999
    3.648241    44.587656     1.486153     0.999966     1.388055     0.083614     0.999999
    3.683417    44.587549     1.486149     0.999967     1.387598     0.083586     0.999999
    3.718593    44.587450     1.486146     0.999968     1.387140     0.083559     0.999999
    3.753769    44.587359     1.486143     0.999969     1.386683     0.083531     1.000000
    3.788945    44.587268     1.486140     0.999971     1.386226     0.083504     1.000000
    3.824121    44.587185     1.486137     0.999972     1.385768     0.083476     1.000000
    3.859297    44.587107     1.486134     0.999973     1.385311     0.083448     1.000000
    3.894472    44.587029     1.486132     0.999974     1.384854     0.083421     1.000000
    3.929648    44.586961     1.486129     0.999975     1.384397     0.083393     1.000000
    3.964824    44.586894     1.486127     0.999976     1.383939     0.083366     1.000000
    4.000000    44.586827     1.486125     0.999977     1.383482     0.083338     1.000000
